
  ZVRE, 2.05

  stimulus-start        ; stimulus-stop       ; stimulus-unit       ; nof-points; parameter-type; impedance-ohm
  6.10000000000E+07     ; 6.40000000000E+07   ; Hz                  ; 1601      ; S11           ; 50        

  conversion            ; time-domain         ; data-format         ; param-unit; smoothing     ; trace-math
  S                     ; none                ; RI                  ; none      ; none          ; none

  sweep-mode-type       ; notlinear-meas-mode 
  FUNDAMENTAL           ; none                


  freq              ;  reS11        ; imS11         
   6.10000000000E+07; -0.480089     ;-0.848574     
   6.10018750000E+07; -0.481093     ;-0.841338     
   6.10037500000E+07; -0.478245     ;-0.842084     
   6.10056250000E+07; -0.481425     ;-0.841566     
   6.10075000000E+07; -0.484593     ;-0.838683     
   6.10093750000E+07; -0.482537     ;-0.839191     
   6.10112500000E+07; -0.483874     ;-0.839134     
   6.10131250000E+07; -0.484548     ;-0.83754      
   6.10150000000E+07; -0.483929     ;-0.83458      
   6.10168750000E+07; -0.485923     ;-0.838098     
   6.10187500000E+07; -0.486809     ;-0.836999     
   6.10206250000E+07; -0.488489     ;-0.835956     
   6.10225000000E+07; -0.490172     ;-0.835513     
   6.10243750000E+07; -0.488111     ;-0.834726     
   6.10262500000E+07; -0.490483     ;-0.834943     
   6.10281250000E+07; -0.490487     ;-0.83316      
   6.10300000000E+07; -0.492376     ;-0.833672     
   6.10318750000E+07; -0.493533     ;-0.833826     
   6.10337500000E+07; -0.496115     ;-0.83107      
   6.10356250000E+07; -0.495783     ;-0.831201     
   6.10375000000E+07; -0.493404     ;-0.829483     
   6.10393750000E+07; -0.495996     ;-0.829488     
   6.10412500000E+07; -0.496462     ;-0.830324     
   6.10431250000E+07; -0.496837     ;-0.829009     
   6.10450000000E+07; -0.497885     ;-0.828902     
   6.10468750000E+07; -0.499841     ;-0.826639     
   6.10487500000E+07; -0.500926     ;-0.827265     
   6.10506250000E+07; -0.502138     ;-0.825046     
   6.10525000000E+07; -0.501896     ;-0.824777     
   6.10543750000E+07; -0.504974     ;-0.827324     
   6.10562500000E+07; -0.505444     ;-0.826833     
   6.10581250000E+07; -0.50739      ;-0.82598      
   6.10600000000E+07; -0.506864     ;-0.825609     
   6.10618750000E+07; -0.507552     ;-0.823254     
   6.10637500000E+07; -0.508126     ;-0.823963     
   6.10656250000E+07; -0.50826      ;-0.82051      
   6.10675000000E+07; -0.510832     ;-0.82349      
   6.10693750000E+07; -0.508094     ;-0.820037     
   6.10712500000E+07; -0.512334     ;-0.823427     
   6.10731250000E+07; -0.511377     ;-0.821115     
   6.10750000000E+07; -0.513562     ;-0.822434     
   6.10768750000E+07; -0.515777     ;-0.81823      
   6.10787500000E+07; -0.514947     ;-0.819912     
   6.10806250000E+07; -0.515589     ;-0.818889     
   6.10825000000E+07; -0.516812     ;-0.817762     
   6.10843750000E+07; -0.516944     ;-0.817056     
   6.10862500000E+07; -0.517379     ;-0.814935     
   6.10881250000E+07; -0.518981     ;-0.814604     
   6.10900000000E+07; -0.518818     ;-0.814591     
   6.10918750000E+07; -0.521269     ;-0.8163       
   6.10937500000E+07; -0.522959     ;-0.813582     
   6.10956250000E+07; -0.521002     ;-0.816158     
   6.10975000000E+07; -0.52448      ;-0.812146     
   6.10993750000E+07; -0.525588     ;-0.812013     
   6.11012500000E+07; -0.524807     ;-0.812115     
   6.11031250000E+07; -0.525302     ;-0.810615     
   6.11050000000E+07; -0.526626     ;-0.810751     
   6.11068750000E+07; -0.527842     ;-0.813183     
   6.11087500000E+07; -0.529        ;-0.810863     
   6.11106250000E+07; -0.532614     ;-0.809583     
   6.11125000000E+07; -0.530048     ;-0.807835     
   6.11143750000E+07; -0.528997     ;-0.808546     
   6.11162500000E+07; -0.533737     ;-0.808174     
   6.11181250000E+07; -0.530778     ;-0.806562     
   6.11200000000E+07; -0.532696     ;-0.805793     
   6.11218750000E+07; -0.534717     ;-0.80579      
   6.11237500000E+07; -0.534341     ;-0.805784     
   6.11256250000E+07; -0.534767     ;-0.809161     
   6.11275000000E+07; -0.536759     ;-0.803705     
   6.11293750000E+07; -0.540927     ;-0.803909     
   6.11312500000E+07; -0.53931      ;-0.802664     
   6.11331250000E+07; -0.541294     ;-0.803274     
   6.11350000000E+07; -0.538825     ;-0.800915     
   6.11368750000E+07; -0.540677     ;-0.801129     
   6.11387500000E+07; -0.540988     ;-0.798109     
   6.11406250000E+07; -0.543598     ;-0.80107      
   6.11425000000E+07; -0.542414     ;-0.801757     
   6.11443750000E+07; -0.544177     ;-0.799019     
   6.11462500000E+07; -0.5463       ;-0.797565     
   6.11481250000E+07; -0.546398     ;-0.799114     
   6.11500000000E+07; -0.546525     ;-0.79707      
   6.11518750000E+07; -0.549282     ;-0.797351     
   6.11537500000E+07; -0.54578      ;-0.796312     
   6.11556250000E+07; -0.54855      ;-0.795008     
   6.11575000000E+07; -0.54934      ;-0.794331     
   6.11593750000E+07; -0.549893     ;-0.794818     
   6.11612500000E+07; -0.551166     ;-0.793384     
   6.11631250000E+07; -0.552951     ;-0.793238     
   6.11650000000E+07; -0.553717     ;-0.794827     
   6.11668750000E+07; -0.555177     ;-0.791224     
   6.11687500000E+07; -0.556892     ;-0.791491     
   6.11706250000E+07; -0.554372     ;-0.789638     
   6.11725000000E+07; -0.555669     ;-0.790434     
   6.11743750000E+07; -0.557448     ;-0.79029      
   6.11762500000E+07; -0.558038     ;-0.791601     
   6.11781250000E+07; -0.561895     ;-0.78644      
   6.11800000000E+07; -0.562538     ;-0.788261     
   6.11818750000E+07; -0.562648     ;-0.786996     
   6.11837500000E+07; -0.563717     ;-0.786687     
   6.11856250000E+07; -0.563199     ;-0.786156     
   6.11875000000E+07; -0.564653     ;-0.784682     
   6.11893750000E+07; -0.565504     ;-0.786838     
   6.11912500000E+07; -0.566247     ;-0.783248     
   6.11931250000E+07; -0.568657     ;-0.785062     
   6.11950000000E+07; -0.567815     ;-0.782269     
   6.11968750000E+07; -0.570844     ;-0.783208     
   6.11987500000E+07; -0.565549     ;-0.780325     
   6.12006250000E+07; -0.567529     ;-0.780854     
   6.12025000000E+07; -0.569681     ;-0.778339     
   6.12043750000E+07; -0.57052      ;-0.782419     
   6.12062500000E+07; -0.572638     ;-0.779832     
   6.12081250000E+07; -0.573837     ;-0.77835      
   6.12100000000E+07; -0.575459     ;-0.777433     
   6.12118750000E+07; -0.575452     ;-0.77772      
   6.12137500000E+07; -0.576016     ;-0.775007     
   6.12156250000E+07; -0.576897     ;-0.776722     
   6.12175000000E+07; -0.576821     ;-0.775239     
   6.12193750000E+07; -0.577763     ;-0.777567     
   6.12212500000E+07; -0.579417     ;-0.773589     
   6.12231250000E+07; -0.580096     ;-0.776451     
   6.12250000000E+07; -0.580323     ;-0.772146     
   6.12268750000E+07; -0.580317     ;-0.770862     
   6.12287500000E+07; -0.581765     ;-0.772998     
   6.12306250000E+07; -0.582685     ;-0.769273     
   6.12325000000E+07; -0.584437     ;-0.770463     
   6.12343750000E+07; -0.583661     ;-0.770641     
   6.12362500000E+07; -0.584418     ;-0.768929     
   6.12381250000E+07; -0.585023     ;-0.768097     
   6.12400000000E+07; -0.586314     ;-0.769424     
   6.12418750000E+07; -0.587005     ;-0.766705     
   6.12437500000E+07; -0.58772      ;-0.767879     
   6.12456250000E+07; -0.589473     ;-0.76644      
   6.12475000000E+07; -0.593792     ;-0.764582     
   6.12493750000E+07; -0.591679     ;-0.76372      
   6.12512500000E+07; -0.589694     ;-0.763212     
   6.12531250000E+07; -0.589577     ;-0.761968     
   6.12550000000E+07; -0.594691     ;-0.764086     
   6.12568750000E+07; -0.596087     ;-0.759807     
   6.12587500000E+07; -0.597955     ;-0.760372     
   6.12606250000E+07; -0.592972     ;-0.759001     
   6.12625000000E+07; -0.595647     ;-0.761193     
   6.12643750000E+07; -0.597773     ;-0.76151      
   6.12662500000E+07; -0.597136     ;-0.759764     
   6.12681250000E+07; -0.598695     ;-0.759343     
   6.12700000000E+07; -0.600851     ;-0.758328     
   6.12718750000E+07; -0.60167      ;-0.757247     
   6.12737500000E+07; -0.600222     ;-0.755792     
   6.12756250000E+07; -0.601183     ;-0.753817     
   6.12775000000E+07; -0.605149     ;-0.754584     
   6.12793750000E+07; -0.606265     ;-0.753877     
   6.12812500000E+07; -0.606363     ;-0.75346      
   6.12831250000E+07; -0.605617     ;-0.752705     
   6.12850000000E+07; -0.604917     ;-0.752708     
   6.12868750000E+07; -0.607711     ;-0.751672     
   6.12887500000E+07; -0.607609     ;-0.75455      
   6.12906250000E+07; -0.609895     ;-0.74885      
   6.12925000000E+07; -0.610307     ;-0.749298     
   6.12943750000E+07; -0.608674     ;-0.748311     
   6.12962500000E+07; -0.610532     ;-0.748517     
   6.12981250000E+07; -0.615277     ;-0.748146     
   6.13000000000E+07; -0.611624     ;-0.746013     
   6.13018750000E+07; -0.612736     ;-0.746521     
   6.13037500000E+07; -0.613807     ;-0.745749     
   6.13056250000E+07; -0.617588     ;-0.745285     
   6.13075000000E+07; -0.614535     ;-0.743392     
   6.13093750000E+07; -0.615282     ;-0.74293      
   6.13112500000E+07; -0.618344     ;-0.744576     
   6.13131250000E+07; -0.617323     ;-0.742803     
   6.13150000000E+07; -0.619133     ;-0.742574     
   6.13168750000E+07; -0.620476     ;-0.740986     
   6.13187500000E+07; -0.622306     ;-0.741488     
   6.13206250000E+07; -0.620284     ;-0.739468     
   6.13225000000E+07; -0.621822     ;-0.737183     
   6.13243750000E+07; -0.623143     ;-0.740632     
   6.13262500000E+07; -0.622717     ;-0.738422     
   6.13281250000E+07; -0.625517     ;-0.738015     
   6.13300000000E+07; -0.624175     ;-0.736909     
   6.13318750000E+07; -0.626712     ;-0.735918     
   6.13337500000E+07; -0.626486     ;-0.736441     
   6.13356250000E+07; -0.62918      ;-0.735981     
   6.13375000000E+07; -0.628029     ;-0.733901     
   6.13393750000E+07; -0.630513     ;-0.734816     
   6.13412500000E+07; -0.629638     ;-0.733908     
   6.13431250000E+07; -0.630548     ;-0.729393     
   6.13450000000E+07; -0.633327     ;-0.729423     
   6.13468750000E+07; -0.633564     ;-0.73074      
   6.13487500000E+07; -0.634694     ;-0.728743     
   6.13506250000E+07; -0.635165     ;-0.728138     
   6.13525000000E+07; -0.632726     ;-0.72872      
   6.13543750000E+07; -0.634828     ;-0.727273     
   6.13562500000E+07; -0.636166     ;-0.72626      
   6.13581250000E+07; -0.637661     ;-0.725939     
   6.13600000000E+07; -0.637815     ;-0.724594     
   6.13618750000E+07; -0.638116     ;-0.725377     
   6.13637500000E+07; -0.639491     ;-0.723507     
   6.13656250000E+07; -0.639679     ;-0.723124     
   6.13675000000E+07; -0.64107      ;-0.722419     
   6.13693750000E+07; -0.642538     ;-0.723725     
   6.13712500000E+07; -0.643494     ;-0.719763     
   6.13731250000E+07; -0.643901     ;-0.720435     
   6.13750000000E+07; -0.642811     ;-0.720239     
   6.13768750000E+07; -0.644854     ;-0.719311     
   6.13787500000E+07; -0.646861     ;-0.717489     
   6.13806250000E+07; -0.64659      ;-0.716129     
   6.13825000000E+07; -0.647917     ;-0.716268     
   6.13843750000E+07; -0.649703     ;-0.71512      
   6.13862500000E+07; -0.645892     ;-0.715347     
   6.13881250000E+07; -0.649011     ;-0.714676     
   6.13900000000E+07; -0.650006     ;-0.713109     
   6.13918750000E+07; -0.648854     ;-0.714369     
   6.13937500000E+07; -0.650761     ;-0.713241     
   6.13956250000E+07; -0.652734     ;-0.712068     
   6.13975000000E+07; -0.653591     ;-0.711705     
   6.13993750000E+07; -0.652986     ;-0.712839     
   6.14012500000E+07; -0.655161     ;-0.709971     
   6.14031250000E+07; -0.656303     ;-0.710734     
   6.14050000000E+07; -0.657855     ;-0.707404     
   6.14068750000E+07; -0.653016     ;-0.707758     
   6.14087500000E+07; -0.656355     ;-0.706614     
   6.14106250000E+07; -0.657014     ;-0.705772     
   6.14125000000E+07; -0.6585       ;-0.704337     
   6.14143750000E+07; -0.66016      ;-0.703964     
   6.14162500000E+07; -0.660765     ;-0.707968     
   6.14181250000E+07; -0.661495     ;-0.703811     
   6.14200000000E+07; -0.66072      ;-0.703107     
   6.14218750000E+07; -0.662662     ;-0.70086      
   6.14237500000E+07; -0.662163     ;-0.7022       
   6.14256250000E+07; -0.663921     ;-0.699344     
   6.14275000000E+07; -0.66461      ;-0.70093      
   6.14293750000E+07; -0.666186     ;-0.701293     
   6.14312500000E+07; -0.667283     ;-0.699069     
   6.14331250000E+07; -0.667521     ;-0.697616     
   6.14350000000E+07; -0.66836      ;-0.69777      
   6.14368750000E+07; -0.667484     ;-0.697159     
   6.14387500000E+07; -0.668837     ;-0.695818     
   6.14406250000E+07; -0.670924     ;-0.695215     
   6.14425000000E+07; -0.670667     ;-0.695115     
   6.14443750000E+07; -0.671759     ;-0.696763     
   6.14462500000E+07; -0.673036     ;-0.694448     
   6.14481250000E+07; -0.67408      ;-0.69227      
   6.14500000000E+07; -0.676479     ;-0.689244     
   6.14518750000E+07; -0.675208     ;-0.689926     
   6.14537500000E+07; -0.678139     ;-0.68987      
   6.14556250000E+07; -0.677009     ;-0.689442     
   6.14575000000E+07; -0.677829     ;-0.68802      
   6.14593750000E+07; -0.679316     ;-0.686012     
   6.14612500000E+07; -0.679111     ;-0.687278     
   6.14631250000E+07; -0.679946     ;-0.686282     
   6.14650000000E+07; -0.679994     ;-0.686077     
   6.14668750000E+07; -0.681443     ;-0.684954     
   6.14687500000E+07; -0.680781     ;-0.683146     
   6.14706250000E+07; -0.681734     ;-0.683601     
   6.14725000000E+07; -0.683814     ;-0.681689     
   6.14743750000E+07; -0.684431     ;-0.681011     
   6.14762500000E+07; -0.685122     ;-0.682175     
   6.14781250000E+07; -0.686858     ;-0.68072      
   6.14800000000E+07; -0.686729     ;-0.679975     
   6.14818750000E+07; -0.686759     ;-0.679022     
   6.14837500000E+07; -0.688567     ;-0.676529     
   6.14856250000E+07; -0.689504     ;-0.676807     
   6.14875000000E+07; -0.686769     ;-0.675842     
   6.14893750000E+07; -0.689841     ;-0.675239     
   6.14912500000E+07; -0.689931     ;-0.676392     
   6.14931250000E+07; -0.691264     ;-0.674977     
   6.14950000000E+07; -0.691139     ;-0.674963     
   6.14968750000E+07; -0.693184     ;-0.673477     
   6.14987500000E+07; -0.693249     ;-0.673001     
   6.15006250000E+07; -0.694188     ;-0.669946     
   6.15025000000E+07; -0.696246     ;-0.669911     
   6.15043750000E+07; -0.697231     ;-0.66963      
   6.15062500000E+07; -0.697067     ;-0.668763     
   6.15081250000E+07; -0.69642      ;-0.668836     
   6.15100000000E+07; -0.698148     ;-0.668146     
   6.15118750000E+07; -0.701017     ;-0.665394     
   6.15137500000E+07; -0.698579     ;-0.665552     
   6.15156250000E+07; -0.699496     ;-0.664367     
   6.15175000000E+07; -0.702032     ;-0.668547     
   6.15193750000E+07; -0.7023       ;-0.664768     
   6.15212500000E+07; -0.702293     ;-0.664155     
   6.15231250000E+07; -0.704962     ;-0.659326     
   6.15250000000E+07; -0.701786     ;-0.661993     
   6.15268750000E+07; -0.705435     ;-0.65997      
   6.15287500000E+07; -0.707018     ;-0.659633     
   6.15306250000E+07; -0.706399     ;-0.657609     
   6.15325000000E+07; -0.706238     ;-0.658132     
   6.15343750000E+07; -0.705982     ;-0.656027     
   6.15362500000E+07; -0.708661     ;-0.657624     
   6.15381250000E+07; -0.708743     ;-0.65543      
   6.15400000000E+07; -0.708751     ;-0.654482     
   6.15418750000E+07; -0.709924     ;-0.652187     
   6.15437500000E+07; -0.711412     ;-0.653882     
   6.15456250000E+07; -0.711472     ;-0.65346      
   6.15475000000E+07; -0.715005     ;-0.651413     
   6.15493750000E+07; -0.711043     ;-0.649292     
   6.15512500000E+07; -0.710201     ;-0.647067     
   6.15531250000E+07; -0.716681     ;-0.65289      
   6.15550000000E+07; -0.714773     ;-0.651299     
   6.15568750000E+07; -0.715093     ;-0.648507     
   6.15587500000E+07; -0.717254     ;-0.646599     
   6.15606250000E+07; -0.717067     ;-0.648282     
   6.15625000000E+07; -0.720595     ;-0.643609     
   6.15643750000E+07; -0.715682     ;-0.644715     
   6.15662500000E+07; -0.720603     ;-0.644247     
   6.15681250000E+07; -0.720195     ;-0.644327     
   6.15700000000E+07; -0.719945     ;-0.642885     
   6.15718750000E+07; -0.719386     ;-0.638798     
   6.15737500000E+07; -0.72158      ;-0.643007     
   6.15756250000E+07; -0.721639     ;-0.639611     
   6.15775000000E+07; -0.724801     ;-0.639372     
   6.15793750000E+07; -0.726211     ;-0.63595      
   6.15812500000E+07; -0.723044     ;-0.636891     
   6.15831250000E+07; -0.727872     ;-0.635379     
   6.15850000000E+07; -0.725375     ;-0.635244     
   6.15868750000E+07; -0.728389     ;-0.638395     
   6.15887500000E+07; -0.728875     ;-0.633792     
   6.15906250000E+07; -0.728258     ;-0.633579     
   6.15925000000E+07; -0.727831     ;-0.632774     
   6.15943750000E+07; -0.73142      ;-0.631341     
   6.15962500000E+07; -0.728135     ;-0.629444     
   6.15981250000E+07; -0.729882     ;-0.630461     
   6.16000000000E+07; -0.730749     ;-0.627313     
   6.16018750000E+07; -0.731206     ;-0.628027     
   6.16037500000E+07; -0.734247     ;-0.631523     
   6.16056250000E+07; -0.733861     ;-0.629968     
   6.16075000000E+07; -0.735023     ;-0.626135     
   6.16093750000E+07; -0.736915     ;-0.623925     
   6.16112500000E+07; -0.735492     ;-0.623721     
   6.16131250000E+07; -0.738209     ;-0.622952     
   6.16150000000E+07; -0.736357     ;-0.623194     
   6.16168750000E+07; -0.735977     ;-0.622016     
   6.16187500000E+07; -0.738025     ;-0.621107     
   6.16206250000E+07; -0.739101     ;-0.621408     
   6.16225000000E+07; -0.738999     ;-0.622096     
   6.16243750000E+07; -0.742091     ;-0.618312     
   6.16262500000E+07; -0.73977      ;-0.617634     
   6.16281250000E+07; -0.740977     ;-0.616537     
   6.16300000000E+07; -0.740134     ;-0.613514     
   6.16318750000E+07; -0.739425     ;-0.612753     
   6.16337500000E+07; -0.745774     ;-0.616905     
   6.16356250000E+07; -0.744354     ;-0.615502     
   6.16375000000E+07; -0.745877     ;-0.612767     
   6.16393750000E+07; -0.746277     ;-0.612925     
   6.16412500000E+07; -0.74838      ;-0.608664     
   6.16431250000E+07; -0.748203     ;-0.610177     
   6.16450000000E+07; -0.747512     ;-0.60891      
   6.16468750000E+07; -0.749832     ;-0.608625     
   6.16487500000E+07; -0.74779      ;-0.607399     
   6.16506250000E+07; -0.749818     ;-0.60925      
   6.16525000000E+07; -0.751564     ;-0.605811     
   6.16543750000E+07; -0.751996     ;-0.605914     
   6.16562500000E+07; -0.751753     ;-0.603914     
   6.16581250000E+07; -0.751406     ;-0.603627     
   6.16600000000E+07; -0.753874     ;-0.604321     
   6.16618750000E+07; -0.753346     ;-0.602437     
   6.16637500000E+07; -0.753991     ;-0.601033     
   6.16656250000E+07; -0.754261     ;-0.599056     
   6.16675000000E+07; -0.757952     ;-0.600423     
   6.16693750000E+07; -0.755077     ;-0.597102     
   6.16712500000E+07; -0.757109     ;-0.597727     
   6.16731250000E+07; -0.759082     ;-0.594103     
   6.16750000000E+07; -0.760211     ;-0.595912     
   6.16768750000E+07; -0.760763     ;-0.593542     
   6.16787500000E+07; -0.760715     ;-0.594696     
   6.16806250000E+07; -0.757611     ;-0.592353     
   6.16825000000E+07; -0.761223     ;-0.59404      
   6.16843750000E+07; -0.762346     ;-0.591441     
   6.16862500000E+07; -0.764721     ;-0.589808     
   6.16881250000E+07; -0.762493     ;-0.5896       
   6.16900000000E+07; -0.766147     ;-0.588354     
   6.16918750000E+07; -0.764731     ;-0.586615     
   6.16937500000E+07; -0.766022     ;-0.588437     
   6.16956250000E+07; -0.76624      ;-0.587336     
   6.16975000000E+07; -0.765067     ;-0.584931     
