
  ZVRE, 2.05

  stimulus-start        ; stimulus-stop       ; stimulus-unit       ; nof-points; parameter-type; impedance-ohm
  6.10000000000E+07     ; 6.40000000000E+07   ; Hz                  ; 1601      ; S11           ; 50        

  conversion            ; time-domain         ; data-format         ; param-unit; smoothing     ; trace-math
  S                     ; none                ; RI                  ; none      ; none          ; none

  sweep-mode-type       ; notlinear-meas-mode 
  FUNDAMENTAL           ; none                


  freq              ;  reS11        ; imS11         
   6.10000000000E+07; -0.47778      ;-0.847044     
   6.10018750000E+07; -0.479052     ;-0.841923     
   6.10037500000E+07; -0.480443     ;-0.842117     
   6.10056250000E+07; -0.483522     ;-0.841657     
   6.10075000000E+07; -0.482579     ;-0.838368     
   6.10093750000E+07; -0.485649     ;-0.839424     
   6.10112500000E+07; -0.482978     ;-0.839474     
   6.10131250000E+07; -0.4854       ;-0.837611     
   6.10150000000E+07; -0.487547     ;-0.83793      
   6.10168750000E+07; -0.487013     ;-0.837443     
   6.10187500000E+07; -0.485569     ;-0.835138     
   6.10206250000E+07; -0.487059     ;-0.834524     
   6.10225000000E+07; -0.488355     ;-0.833733     
   6.10243750000E+07; -0.488216     ;-0.83289      
   6.10262500000E+07; -0.491471     ;-0.835849     
   6.10281250000E+07; -0.489668     ;-0.836574     
   6.10300000000E+07; -0.493532     ;-0.83501      
   6.10318750000E+07; -0.494395     ;-0.832321     
   6.10337500000E+07; -0.494488     ;-0.833211     
   6.10356250000E+07; -0.495964     ;-0.831524     
   6.10375000000E+07; -0.495056     ;-0.833617     
   6.10393750000E+07; -0.496755     ;-0.831007     
   6.10412500000E+07; -0.497872     ;-0.828836     
   6.10431250000E+07; -0.500342     ;-0.828789     
   6.10450000000E+07; -0.500256     ;-0.828299     
   6.10468750000E+07; -0.501006     ;-0.828975     
   6.10487500000E+07; -0.503128     ;-0.828659     
   6.10506250000E+07; -0.501191     ;-0.825705     
   6.10525000000E+07; -0.504228     ;-0.82832      
   6.10543750000E+07; -0.503995     ;-0.825838     
   6.10562500000E+07; -0.503504     ;-0.826832     
   6.10581250000E+07; -0.50616      ;-0.823552     
   6.10600000000E+07; -0.505996     ;-0.825703     
   6.10618750000E+07; -0.509496     ;-0.820989     
   6.10637500000E+07; -0.509017     ;-0.824599     
   6.10656250000E+07; -0.51258      ;-0.821863     
   6.10675000000E+07; -0.51177      ;-0.821885     
   6.10693750000E+07; -0.509165     ;-0.821732     
   6.10712500000E+07; -0.510948     ;-0.819434     
   6.10731250000E+07; -0.512761     ;-0.821315     
   6.10750000000E+07; -0.513583     ;-0.819673     
   6.10768750000E+07; -0.514327     ;-0.820446     
   6.10787500000E+07; -0.515962     ;-0.817227     
   6.10806250000E+07; -0.514853     ;-0.81813      
   6.10825000000E+07; -0.516703     ;-0.817696     
   6.10843750000E+07; -0.518867     ;-0.816638     
   6.10862500000E+07; -0.517637     ;-0.81736      
   6.10881250000E+07; -0.519813     ;-0.818319     
   6.10900000000E+07; -0.520699     ;-0.817955     
   6.10918750000E+07; -0.521116     ;-0.816273     
   6.10937500000E+07; -0.524136     ;-0.813212     
   6.10956250000E+07; -0.522712     ;-0.814759     
   6.10975000000E+07; -0.526382     ;-0.814241     
   6.10993750000E+07; -0.521769     ;-0.813405     
   6.11012500000E+07; -0.522282     ;-0.80781      
   6.11031250000E+07; -0.524495     ;-0.813147     
   6.11050000000E+07; -0.525957     ;-0.811073     
   6.11068750000E+07; -0.528022     ;-0.8099       
   6.11087500000E+07; -0.529137     ;-0.810307     
   6.11106250000E+07; -0.530649     ;-0.808842     
   6.11125000000E+07; -0.529418     ;-0.80952      
   6.11143750000E+07; -0.531459     ;-0.807573     
   6.11162500000E+07; -0.534076     ;-0.807397     
   6.11181250000E+07; -0.531972     ;-0.806595     
   6.11200000000E+07; -0.533588     ;-0.808299     
   6.11218750000E+07; -0.53266      ;-0.804723     
   6.11237500000E+07; -0.535169     ;-0.808145     
   6.11256250000E+07; -0.536923     ;-0.804576     
   6.11275000000E+07; -0.537217     ;-0.803345     
   6.11293750000E+07; -0.537401     ;-0.804405     
   6.11312500000E+07; -0.540382     ;-0.802963     
   6.11331250000E+07; -0.537758     ;-0.801027     
   6.11350000000E+07; -0.541309     ;-0.800646     
   6.11368750000E+07; -0.541054     ;-0.803698     
   6.11387500000E+07; -0.541051     ;-0.800099     
   6.11406250000E+07; -0.543562     ;-0.801279     
   6.11425000000E+07; -0.543804     ;-0.799498     
   6.11443750000E+07; -0.546086     ;-0.799585     
   6.11462500000E+07; -0.547296     ;-0.797091     
   6.11481250000E+07; -0.545479     ;-0.798379     
   6.11500000000E+07; -0.545801     ;-0.793998     
   6.11518750000E+07; -0.548312     ;-0.798889     
   6.11537500000E+07; -0.548837     ;-0.797138     
   6.11556250000E+07; -0.552123     ;-0.793832     
   6.11575000000E+07; -0.549699     ;-0.795377     
   6.11593750000E+07; -0.551491     ;-0.793466     
   6.11612500000E+07; -0.551947     ;-0.793943     
   6.11631250000E+07; -0.555896     ;-0.792142     
   6.11650000000E+07; -0.551491     ;-0.790865     
   6.11668750000E+07; -0.55435      ;-0.793587     
   6.11687500000E+07; -0.556377     ;-0.790735     
   6.11706250000E+07; -0.5572       ;-0.790176     
   6.11725000000E+07; -0.556118     ;-0.787608     
   6.11743750000E+07; -0.555919     ;-0.789449     
   6.11762500000E+07; -0.559861     ;-0.790298     
   6.11781250000E+07; -0.559113     ;-0.789635     
   6.11800000000E+07; -0.561425     ;-0.78855      
   6.11818750000E+07; -0.56011      ;-0.788636     
   6.11837500000E+07; -0.56131      ;-0.786769     
   6.11856250000E+07; -0.563019     ;-0.786945     
   6.11875000000E+07; -0.56342      ;-0.788791     
   6.11893750000E+07; -0.567845     ;-0.784244     
   6.11912500000E+07; -0.566796     ;-0.783805     
   6.11931250000E+07; -0.565327     ;-0.783862     
   6.11950000000E+07; -0.568808     ;-0.781895     
   6.11968750000E+07; -0.567701     ;-0.782544     
   6.11987500000E+07; -0.569286     ;-0.780825     
   6.12006250000E+07; -0.570021     ;-0.782957     
   6.12025000000E+07; -0.569014     ;-0.783011     
   6.12043750000E+07; -0.574548     ;-0.777406     
   6.12062500000E+07; -0.572174     ;-0.780393     
   6.12081250000E+07; -0.572057     ;-0.780772     
   6.12100000000E+07; -0.575778     ;-0.776841     
   6.12118750000E+07; -0.576639     ;-0.777408     
   6.12137500000E+07; -0.574329     ;-0.777253     
   6.12156250000E+07; -0.574976     ;-0.775426     
   6.12175000000E+07; -0.576219     ;-0.776324     
   6.12193750000E+07; -0.576761     ;-0.77744      
   6.12212500000E+07; -0.580311     ;-0.774065     
   6.12231250000E+07; -0.579639     ;-0.774088     
   6.12250000000E+07; -0.580684     ;-0.77256      
   6.12268750000E+07; -0.582435     ;-0.771119     
   6.12287500000E+07; -0.581614     ;-0.770547     
   6.12306250000E+07; -0.583427     ;-0.773118     
   6.12325000000E+07; -0.582446     ;-0.772246     
   6.12343750000E+07; -0.585343     ;-0.768934     
   6.12362500000E+07; -0.584719     ;-0.769392     
   6.12381250000E+07; -0.589209     ;-0.768129     
   6.12400000000E+07; -0.587099     ;-0.768826     
   6.12418750000E+07; -0.58647      ;-0.765508     
   6.12437500000E+07; -0.58795      ;-0.768484     
   6.12456250000E+07; -0.59005      ;-0.765925     
   6.12475000000E+07; -0.591045     ;-0.765571     
   6.12493750000E+07; -0.59237      ;-0.763988     
   6.12512500000E+07; -0.590126     ;-0.762525     
   6.12531250000E+07; -0.592454     ;-0.765468     
   6.12550000000E+07; -0.593509     ;-0.765175     
   6.12568750000E+07; -0.594413     ;-0.76327      
   6.12587500000E+07; -0.594515     ;-0.763125     
   6.12606250000E+07; -0.596183     ;-0.760871     
   6.12625000000E+07; -0.595799     ;-0.760896     
   6.12643750000E+07; -0.596523     ;-0.761475     
   6.12662500000E+07; -0.5987       ;-0.758349     
   6.12681250000E+07; -0.599368     ;-0.757999     
   6.12700000000E+07; -0.602147     ;-0.756797     
   6.12718750000E+07; -0.600472     ;-0.756068     
   6.12737500000E+07; -0.6008       ;-0.758097     
   6.12756250000E+07; -0.601711     ;-0.755121     
   6.12775000000E+07; -0.602435     ;-0.755033     
   6.12793750000E+07; -0.60397      ;-0.755566     
   6.12812500000E+07; -0.605778     ;-0.752711     
   6.12831250000E+07; -0.6068       ;-0.752008     
   6.12850000000E+07; -0.608408     ;-0.750886     
   6.12868750000E+07; -0.605999     ;-0.751723     
   6.12887500000E+07; -0.607533     ;-0.752456     
   6.12906250000E+07; -0.608318     ;-0.749586     
   6.12925000000E+07; -0.607474     ;-0.749593     
   6.12943750000E+07; -0.613213     ;-0.751614     
   6.12962500000E+07; -0.611221     ;-0.748996     
   6.12981250000E+07; -0.611913     ;-0.75044      
   6.13000000000E+07; -0.61228      ;-0.749153     
   6.13018750000E+07; -0.615073     ;-0.746144     
   6.13037500000E+07; -0.613989     ;-0.745676     
   6.13056250000E+07; -0.614223     ;-0.747371     
   6.13075000000E+07; -0.613921     ;-0.744877     
   6.13093750000E+07; -0.617043     ;-0.743705     
   6.13112500000E+07; -0.618316     ;-0.743739     
   6.13131250000E+07; -0.619365     ;-0.742903     
   6.13150000000E+07; -0.617385     ;-0.742624     
   6.13168750000E+07; -0.617073     ;-0.739851     
   6.13187500000E+07; -0.619467     ;-0.740316     
   6.13206250000E+07; -0.62121      ;-0.741399     
   6.13225000000E+07; -0.622065     ;-0.741587     
   6.13243750000E+07; -0.622333     ;-0.73974      
   6.13262500000E+07; -0.622308     ;-0.737636     
   6.13281250000E+07; -0.623088     ;-0.736211     
   6.13300000000E+07; -0.624542     ;-0.737675     
   6.13318750000E+07; -0.625643     ;-0.737947     
   6.13337500000E+07; -0.62928      ;-0.734763     
   6.13356250000E+07; -0.629389     ;-0.733501     
   6.13375000000E+07; -0.626872     ;-0.733716     
   6.13393750000E+07; -0.629456     ;-0.734631     
   6.13412500000E+07; -0.629958     ;-0.732657     
   6.13431250000E+07; -0.633164     ;-0.732471     
   6.13450000000E+07; -0.628473     ;-0.730331     
   6.13468750000E+07; -0.630005     ;-0.729645     
   6.13487500000E+07; -0.633561     ;-0.730349     
   6.13506250000E+07; -0.633308     ;-0.729197     
   6.13525000000E+07; -0.633365     ;-0.725966     
   6.13543750000E+07; -0.634978     ;-0.727598     
   6.13562500000E+07; -0.635844     ;-0.730111     
   6.13581250000E+07; -0.636614     ;-0.729526     
   6.13600000000E+07; -0.637506     ;-0.727645     
   6.13618750000E+07; -0.641481     ;-0.724647     
   6.13637500000E+07; -0.641643     ;-0.722911     
   6.13656250000E+07; -0.639916     ;-0.724725     
   6.13675000000E+07; -0.641617     ;-0.723578     
   6.13693750000E+07; -0.640719     ;-0.722046     
   6.13712500000E+07; -0.641293     ;-0.720906     
   6.13731250000E+07; -0.643905     ;-0.721349     
   6.13750000000E+07; -0.641216     ;-0.719216     
   6.13768750000E+07; -0.64345      ;-0.719853     
   6.13787500000E+07; -0.645032     ;-0.721507     
   6.13806250000E+07; -0.646565     ;-0.720482     
   6.13825000000E+07; -0.64803      ;-0.71709      
   6.13843750000E+07; -0.649611     ;-0.715759     
   6.13862500000E+07; -0.65033      ;-0.714421     
   6.13881250000E+07; -0.649508     ;-0.715578     
   6.13900000000E+07; -0.650369     ;-0.713691     
   6.13918750000E+07; -0.652417     ;-0.713176     
   6.13937500000E+07; -0.649393     ;-0.713195     
   6.13956250000E+07; -0.651276     ;-0.712469     
   6.13975000000E+07; -0.652417     ;-0.710103     
   6.13993750000E+07; -0.650345     ;-0.708411     
   6.14012500000E+07; -0.654325     ;-0.709852     
   6.14031250000E+07; -0.656314     ;-0.712297     
   6.14050000000E+07; -0.65367      ;-0.707101     
   6.14068750000E+07; -0.655662     ;-0.708473     
   6.14087500000E+07; -0.657618     ;-0.707652     
   6.14106250000E+07; -0.659991     ;-0.709412     
   6.14125000000E+07; -0.659138     ;-0.70738      
   6.14143750000E+07; -0.658884     ;-0.705074     
   6.14162500000E+07; -0.660135     ;-0.70812      
   6.14181250000E+07; -0.663096     ;-0.703321     
   6.14200000000E+07; -0.663011     ;-0.703343     
   6.14218750000E+07; -0.665131     ;-0.701426     
   6.14237500000E+07; -0.66521      ;-0.701919     
   6.14256250000E+07; -0.66352      ;-0.701954     
   6.14275000000E+07; -0.666552     ;-0.698993     
   6.14293750000E+07; -0.665564     ;-0.698208     
   6.14312500000E+07; -0.667936     ;-0.700395     
   6.14331250000E+07; -0.667385     ;-0.698889     
   6.14350000000E+07; -0.666785     ;-0.695806     
   6.14368750000E+07; -0.668542     ;-0.696092     
   6.14387500000E+07; -0.670222     ;-0.697806     
   6.14406250000E+07; -0.669744     ;-0.693407     
   6.14425000000E+07; -0.672702     ;-0.695319     
   6.14443750000E+07; -0.67353      ;-0.693043     
   6.14462500000E+07; -0.674705     ;-0.692044     
   6.14481250000E+07; -0.674304     ;-0.691165     
   6.14500000000E+07; -0.675371     ;-0.69065      
   6.14518750000E+07; -0.67659      ;-0.691019     
   6.14537500000E+07; -0.679298     ;-0.688695     
   6.14556250000E+07; -0.675911     ;-0.690257     
   6.14575000000E+07; -0.675126     ;-0.689225     
   6.14593750000E+07; -0.676427     ;-0.688544     
   6.14612500000E+07; -0.676108     ;-0.68603      
   6.14631250000E+07; -0.678869     ;-0.686795     
   6.14650000000E+07; -0.679937     ;-0.687987     
   6.14668750000E+07; -0.681639     ;-0.685769     
   6.14687500000E+07; -0.68249      ;-0.685036     
   6.14706250000E+07; -0.684499     ;-0.683181     
   6.14725000000E+07; -0.684497     ;-0.681542     
   6.14743750000E+07; -0.683168     ;-0.683324     
   6.14762500000E+07; -0.683528     ;-0.681491     
   6.14781250000E+07; -0.686577     ;-0.679334     
   6.14800000000E+07; -0.685902     ;-0.67889      
   6.14818750000E+07; -0.685048     ;-0.677457     
   6.14837500000E+07; -0.688625     ;-0.677449     
   6.14856250000E+07; -0.687513     ;-0.678743     
   6.14875000000E+07; -0.690481     ;-0.675241     
   6.14893750000E+07; -0.690466     ;-0.677117     
   6.14912500000E+07; -0.693439     ;-0.675114     
   6.14931250000E+07; -0.695214     ;-0.673772     
   6.14950000000E+07; -0.691366     ;-0.673102     
   6.14968750000E+07; -0.69205      ;-0.672391     
   6.14987500000E+07; -0.693479     ;-0.6729       
   6.15006250000E+07; -0.69269      ;-0.671997     
   6.15025000000E+07; -0.693827     ;-0.669338     
   6.15043750000E+07; -0.695111     ;-0.67018      
   6.15062500000E+07; -0.697112     ;-0.668314     
   6.15081250000E+07; -0.69639      ;-0.666606     
   6.15100000000E+07; -0.698793     ;-0.668366     
   6.15118750000E+07; -0.700728     ;-0.667173     
   6.15137500000E+07; -0.700238     ;-0.667131     
   6.15156250000E+07; -0.702708     ;-0.664892     
   6.15175000000E+07; -0.699703     ;-0.664739     
   6.15193750000E+07; -0.701456     ;-0.663686     
   6.15212500000E+07; -0.701075     ;-0.662378     
   6.15231250000E+07; -0.700863     ;-0.660358     
   6.15250000000E+07; -0.703199     ;-0.660691     
   6.15268750000E+07; -0.704751     ;-0.663424     
   6.15287500000E+07; -0.707041     ;-0.65887      
   6.15306250000E+07; -0.705783     ;-0.658875     
   6.15325000000E+07; -0.707005     ;-0.657108     
   6.15343750000E+07; -0.709043     ;-0.65626      
   6.15362500000E+07; -0.706788     ;-0.657368     
   6.15381250000E+07; -0.707936     ;-0.655748     
   6.15400000000E+07; -0.710661     ;-0.653492     
   6.15418750000E+07; -0.708666     ;-0.654573     
   6.15437500000E+07; -0.709253     ;-0.652829     
   6.15456250000E+07; -0.712878     ;-0.656408     
   6.15475000000E+07; -0.712339     ;-0.652015     
   6.15493750000E+07; -0.712807     ;-0.650415     
   6.15512500000E+07; -0.71388      ;-0.65125      
   6.15531250000E+07; -0.716523     ;-0.648224     
   6.15550000000E+07; -0.715985     ;-0.648876     
   6.15568750000E+07; -0.717712     ;-0.646996     
   6.15587500000E+07; -0.714193     ;-0.647188     
   6.15606250000E+07; -0.716438     ;-0.646578     
   6.15625000000E+07; -0.716991     ;-0.644692     
   6.15643750000E+07; -0.718532     ;-0.645168     
   6.15662500000E+07; -0.719934     ;-0.645722     
   6.15681250000E+07; -0.720586     ;-0.644904     
   6.15700000000E+07; -0.720061     ;-0.641593     
   6.15718750000E+07; -0.721425     ;-0.643151     
   6.15737500000E+07; -0.721868     ;-0.641752     
   6.15756250000E+07; -0.721707     ;-0.639425     
   6.15775000000E+07; -0.724241     ;-0.639197     
   6.15793750000E+07; -0.72453      ;-0.639472     
   6.15812500000E+07; -0.723642     ;-0.63767      
   6.15831250000E+07; -0.725886     ;-0.636954     
   6.15850000000E+07; -0.726351     ;-0.635211     
   6.15868750000E+07; -0.725726     ;-0.635298     
   6.15887500000E+07; -0.728258     ;-0.636545     
   6.15906250000E+07; -0.728202     ;-0.63345      
   6.15925000000E+07; -0.728966     ;-0.633671     
   6.15943750000E+07; -0.728403     ;-0.63349      
   6.15962500000E+07; -0.73076      ;-0.630245     
   6.15981250000E+07; -0.731664     ;-0.631725     
   6.16000000000E+07; -0.733001     ;-0.632145     
   6.16018750000E+07; -0.732554     ;-0.62931      
   6.16037500000E+07; -0.733337     ;-0.62793      
   6.16056250000E+07; -0.73364      ;-0.628908     
   6.16075000000E+07; -0.734818     ;-0.627973     
   6.16093750000E+07; -0.735961     ;-0.624121     
   6.16112500000E+07; -0.737305     ;-0.625445     
   6.16131250000E+07; -0.736633     ;-0.624889     
   6.16150000000E+07; -0.737684     ;-0.621845     
   6.16168750000E+07; -0.737931     ;-0.621828     
   6.16187500000E+07; -0.73822      ;-0.62348      
   6.16206250000E+07; -0.741272     ;-0.618122     
   6.16225000000E+07; -0.740393     ;-0.620184     
   6.16243750000E+07; -0.738484     ;-0.617888     
   6.16262500000E+07; -0.740842     ;-0.618664     
   6.16281250000E+07; -0.742384     ;-0.619544     
   6.16300000000E+07; -0.743866     ;-0.617128     
   6.16318750000E+07; -0.746197     ;-0.614137     
   6.16337500000E+07; -0.744081     ;-0.615997     
   6.16356250000E+07; -0.745489     ;-0.613409     
   6.16375000000E+07; -0.743162     ;-0.612715     
   6.16393750000E+07; -0.746096     ;-0.612902     
   6.16412500000E+07; -0.746919     ;-0.613436     
   6.16431250000E+07; -0.74744      ;-0.612911     
   6.16450000000E+07; -0.746705     ;-0.611228     
   6.16468750000E+07; -0.749423     ;-0.608958     
   6.16487500000E+07; -0.748755     ;-0.608688     
   6.16506250000E+07; -0.74817      ;-0.606491     
   6.16525000000E+07; -0.750755     ;-0.604753     
   6.16543750000E+07; -0.752072     ;-0.604294     
   6.16562500000E+07; -0.751007     ;-0.605433     
   6.16581250000E+07; -0.753678     ;-0.606776     
   6.16600000000E+07; -0.752665     ;-0.603869     
   6.16618750000E+07; -0.755268     ;-0.601229     
   6.16637500000E+07; -0.753028     ;-0.602131     
   6.16656250000E+07; -0.756304     ;-0.60045      
   6.16675000000E+07; -0.756706     ;-0.597705     
   6.16693750000E+07; -0.758477     ;-0.600295     
   6.16712500000E+07; -0.753975     ;-0.597398     
   6.16731250000E+07; -0.758342     ;-0.59675      
   6.16750000000E+07; -0.760601     ;-0.596503     
   6.16768750000E+07; -0.760497     ;-0.594129     
   6.16787500000E+07; -0.761455     ;-0.594912     
   6.16806250000E+07; -0.759        ;-0.593073     
   6.16825000000E+07; -0.76124      ;-0.592779     
   6.16843750000E+07; -0.76109      ;-0.592638     
   6.16862500000E+07; -0.764104     ;-0.591976     
   6.16881250000E+07; -0.761737     ;-0.590844     
   6.16900000000E+07; -0.764431     ;-0.590108     
   6.16918750000E+07; -0.764296     ;-0.591489     
   6.16937500000E+07; -0.765239     ;-0.586194     
   6.16956250000E+07; -0.76653      ;-0.585613     
   6.16975000000E+07; -0.767776     ;-0.584682     
